TuningAge(Ka),d13C
0,0.096
0.0036,0.243
0.0174,0.123
0.0188,-0.121
0.0241,-0.217
0.0281,-0.129
0.0294,-0.113
0.0307,-0.189
0.0334,-0.123
0.0358,0.064
0.0369,-0.002
0.0381,-0.073
0.0393,0.108
0.0416,-0.053
0.0428,-0.262
0.044,0.126
0.0451,0.169
0.0463,0.239
0.0475,0.033
0.0487,-0.219
0.0498,0.066
0.051,-0.047
0.0512,-0.026
0.0515,-0.102
0.0517,0.18
0.052,-0.259
0.0522,-0.064
0.0525,-0.196
0.0527,-0.311
0.053,-0.319
0.0532,-0.37
0.0535,-0.334
0.0537,-0.274
0.054,-0.192
0.0542,-0.386
0.0579,-0.331
0.0692,-0.421
0.0729,-0.629
0.0739,0.312
0.0749,-0.008
0.0759,0.181
0.0769,-0.029
0.0778,0.029
0.0788,0
0.0798,0.039
0.0818,-0.075
0.0877,-0.152
0.0936,-0.148
0.0995,-0.591
0.0998,-0.112
0.1,-0.128
0.1003,-0.013
0.1005,-0.328
0.1008,-0.01
0.101,-0.278
0.1037,-0.134
0.1063,-0.151
0.109,-0.046
0.1116,-0.086
0.1143,-0.239
0.1169,-0.211
0.1251,-0.335
0.127,-0.237
0.1304,-0.33
0.1322,-0.345
0.1373,-0.049
0.1391,-0.42
0.1408,-0.558
0.1418,-0.21
0.1429,-0.418
0.1439,-0.429
0.1449,-0.089
0.146,-0.398
0.147,-0.139
0.1521,-0.561
0.1573,0.215
0.159,-0.551
0.1607,-0.553
0.1619,-0.102
0.163,0.076
0.1642,-0.451
0.1654,-0.503
0.1665,-0.209
0.1677,-0.549
0.1688,-0.229
0.17,-0.528
0.1729,-0.544
0.1757,-0.173
0.1786,-0.447
0.1843,-0.46
0.1872,-0.101
0.1878,0.223
0.1943,0.577
0.2045,-0.025
0.2067,-0.044
0.2088,-0.045
0.211,-0.076
0.2144,0.14
0.2195,-0.194
0.2201,-0.389
0.2207,0.075
0.222,-0.535
0.2232,-0.07
0.2238,-0.153
0.2244,-0.051
0.2262,-0.525
0.2274,-0.141
0.228,-0.221
0.2286,-0.445
0.2299,-0.363
0.2311,0.034
0.2317,-0.473
0.2323,-0.573
0.2329,-0.333
0.2335,0.007
0.2346,-0.126
0.2362,-0.076
0.2411,-0.312
0.2427,-0.433
0.2443,-0.259
0.2462,-0.134
0.248,-0.434
0.2517,-0.446
0.2552,-0.351
0.2569,-0.42
0.2586,-0.429
0.2603,-0.468
0.2636,-0.513
0.2653,-0.618
0.267,-0.568
0.2703,-0.581
0.2715,-0.186
0.2728,-0.507
0.274,-0.541
0.2765,-0.865
0.2778,-0.618
0.2802,-0.235
0.2815,-0.14
0.2827,-0.145
0.2852,0.372
0.2865,-0.196
0.2877,-0.377
0.2892,-0.386
0.2907,-0.462
0.2922,-0.602
0.2935,-0.521
0.2948,-0.484
0.296,-0.434
0.2973,-0.435
0.2986,-0.406
0.2999,-0.481
0.3012,-0.438
0.3024,-0.193
0.3037,-0.281
0.305,-0.235
0.3088,-0.362
0.3125,-0.369
0.3208,-0.207
0.3236,0.031
0.3264,-0.217
0.3279,-0.249
0.3294,-0.293
0.3309,-0.356
0.3403,-0.477
0.3425,-0.532
0.3459,-0.216
0.347,-0.574
0.3496,-0.606
0.3523,-0.543
0.3549,-0.493
0.3602,-0.087
0.3629,-0.391
0.3655,0.056
0.3658,-0.221
0.366,-0.3
0.3719,-0.364
0.3795,-0.248
0.3896,0.095
0.3898,-0.31
0.3912,-0.241
0.3926,0.253
0.394,0.12
0.3954,-0.12
0.3969,0.117
0.3983,0.247
0.4025,0.177
0.4039,-0.046
0.4051,0.134
0.4063,0.124
0.4076,0.026
0.4083,-0.087
0.4095,-0.15
0.4101,-0.136
0.4104,-0.278
0.4108,-0.368
0.4111,-0.535
0.4114,-0.517
0.4117,-0.545
0.412,-0.581
0.4124,-0.494
0.4133,-0.487
0.414,-0.461
0.4173,-0.394
0.4225,-0.48
0.427,-0.622
0.4316,-0.5
0.4361,-0.641
0.4388,-0.66
0.4395,-0.553
0.4403,-0.596
0.441,-0.566
0.4439,-0.46
0.4469,-0.509
0.4498,-0.512
0.4566,-0.769
0.4761,0.011
0.4778,0.203
0.4795,0.2
0.4813,0.242
0.483,0.063
0.4886,0.166
0.4928,-0.256
0.4987,0.073
0.5024,-0.073
0.5121,0.113
0.518,0.273
0.5208,0.175
0.5231,0.266
0.5253,-0.044
0.5276,0
0.5298,-0.089
0.5321,-0.448
0.5343,-0.137
0.5359,-0.181
0.537,-0.095
0.5381,-0.359
0.5392,-0.172
0.5403,-0.331
0.5414,-0.415
0.5425,0.007
0.5436,-0.364
0.5447,-0.284
0.5458,-0.349
0.548,-0.318
0.5495,-0.05
0.5525,-0.311
0.5554,-0.219
0.5569,0.056
0.5587,0
0.564,-0.196
0.5725,-0.441
0.5811,-0.36
0.5831,-0.334
0.5851,-0.218
0.587,-0.406
0.589,-0.375
0.591,0.153
0.594,-0.347
0.5969,-0.208
0.5999,-0.204
0.6019,-0.134
0.606,-0.186
0.608,-0.455
0.6115,-0.273
0.615,-0.027
0.6186,0.077
0.6221,0.009
0.6256,-0.582
0.6258,-0.486
0.6261,-0.273
0.6266,-0.428
0.627,-0.429
0.6273,-0.371
0.6275,-0.473
0.6278,-0.457
0.628,-0.474
0.6398,-0.454
0.6516,-0.502
0.6566,-0.666
0.6615,-0.605
0.6665,-0.278
0.6676,-0.685
0.6687,-0.823
0.6698,-0.669
0.6709,-0.25
0.672,-0.453
0.6739,-0.702
0.6814,-0.651
0.6832,-0.429
0.6851,-0.596
0.6852,-0.48
0.6854,-0.139
0.6855,-0.213
0.6856,-0.211
0.6946,0.211
0.7127,-0.261
0.7128,0.023
0.7129,-0.07
0.7129,-0.138
0.713,-0.166
0.7139,-0.2
0.7147,-0.207
0.7156,-0.36
0.7165,-1.176
0.7174,-0.39
0.7191,-0.727
0.7278,-0.46
0.7365,-0.517
0.7411,-0.448
0.7417,0.087
0.7424,-0.218
0.743,-0.184
0.7449,-0.253
0.7468,-0.577
0.7513,-0.584
0.7559,-0.35
0.7604,-0.503
0.7649,-0.528
0.7653,-0.441
0.7657,-0.626
0.7661,-0.169
0.7671,-0.611
0.7682,-0.466
0.7723,-0.374
0.7733,-0.335
0.7743,-0.25
0.7753,-0.337
0.7764,-0.334
0.7774,-0.266
0.7784,-0.148
0.7794,-0.226
0.7805,-0.211
0.7815,-0.45
0.7856,-0.572
0.7897,-0.522
0.8116,-0.422
0.8119,-0.627
0.8122,-0.618
0.8125,-0.599
0.8128,-0.615
0.8136,-0.557
0.8151,-0.481
0.8166,0.013
0.8181,-0.436
0.8196,-0.485
0.8211,-0.422
0.8226,-0.495
0.8296,-0.636
0.8367,-0.353
0.837,-0.471
0.8372,-0.438
0.8375,-0.545
0.8416,-0.513
0.8458,-0.296
0.8499,-0.372
0.854,-0.343
0.856,-0.316
0.8622,-0.366
0.8637,-0.405
0.8646,-0.703
0.8655,-0.594
0.8691,-0.701
0.87,-0.543
0.8709,-0.662
0.8718,-0.695
0.8727,-0.818
0.8736,-0.731
0.8745,-0.72
0.8764,-0.205
0.8787,-0.337
0.8807,-0.689
0.8826,-0.688
0.8865,-0.488
0.8984,-0.488
0.9023,-0.628
0.9044,-0.635
0.9066,-0.763
0.9087,-0.681
0.9108,-0.8
0.913,-0.847
0.9151,-0.772
0.9176,-0.85
0.9226,-0.618
0.9276,-0.712
0.9288,-0.547
0.9301,-0.573
0.9313,-0.425
0.9338,-0.825
0.935,-0.492
0.9408,-0.197
0.9466,-0.326
0.9493,-0.136
0.9519,-0.305
0.9545,-0.382
0.9572,-0.576
0.9601,-0.714
0.9658,-0.366
0.9686,-0.251
0.9713,-0.287
0.9726,-0.317
0.9739,-0.148
0.9751,-0.43
0.9818,0.036
0.9964,0.081
0.997,-0.432
0.9976,-0.067
0.9982,-0.123
0.9987,-0.13
0.9993,-0.289
0.9999,-0.357
1.0055,-0.243
1.0084,-0.039
1.014,-0.105
1.0168,0.132
1.0196,-0.07
1.0223,-0.108
1.0251,-0.153
1.0279,-0.333
1.0307,-0.118
1.031,-0.22
1.0312,-0.462
1.0315,-0.326
1.0318,-0.464
1.0321,-0.604
1.0323,-0.593
1.0326,-0.51
1.0383,-0.2
1.0439,-0.299
1.0496,-0.686
1.0538,-0.029
1.0565,-0.257
1.0593,0.139
1.062,-0.341
1.0648,-0.05
1.0676,-0.122
1.0703,-0.131
1.0731,-0.281
1.0746,0.171
1.0762,-0.06
1.0769,-0.114
1.0777,-0.035
1.0824,-0.275
1.087,-0.287
1.0957,-0.188
1.0991,-0.263
1.1058,-0.061
1.1092,-0.348
1.1136,0.182
1.1179,-0.122
1.124,-0.456
1.1264,-0.476
1.1308,-0.565
1.1341,-0.554
1.1358,-0.498
1.1374,-0.431
1.1391,-0.313
1.1408,-0.277
1.1443,-0.149
1.146,-0.29
1.1475,-0.025
1.1504,0.274
1.1534,0.126
1.1549,0.131
1.1564,0.16
1.1579,0.179
1.1604,0.073
1.1638,0.083
1.1677,0.1
1.1718,0.079
1.1759,0.047
1.1847,-0.111
1.1913,-0.545
1.197,-0.385
1.2012,-0.135
1.2054,-0.395
1.2138,-0.363
1.2145,-0.416
1.2151,-0.374
1.2158,-0.561
1.2165,-0.614
1.2172,-0.121
1.2185,-0.069
1.2198,-0.32
1.2245,0.026
1.2302,-0.11
1.2323,-0.096
1.2344,-0.22
1.2365,-0.203
1.2439,-0.241
1.2482,-0.524
1.2525,-0.645
1.2568,-0.651
1.26,-0.462
1.2619,-0.381
1.2638,-0.3
1.2656,-0.419
1.2675,-0.287
1.2693,-0.49
1.2712,-0.152
1.273,-0.271
1.275,-0.019
1.277,0.069
1.279,0.025
1.2811,-0.096
1.2831,-0.305
1.2851,-0.077
1.2871,-0.399
1.2906,-0.491
1.2941,-0.371
1.297,-0.631
1.2992,-0.343
1.3015,-0.548
1.3039,-0.515
1.3063,-0.331
1.311,-0.166
1.3118,-0.029
1.314,-0.01
1.3214,-0.333
1.3239,-0.263
1.3263,-0.333
1.3288,-0.47
1.3312,-0.581
1.3335,-0.39
1.3359,-0.484
1.3382,-0.447
1.3406,-0.479
1.3429,-0.635
1.3451,0.126
1.3473,-0.171
1.3495,-0.091
1.3518,-0.169
1.354,0.149
1.3611,-0.149
1.3627,-0.233
1.3642,-0.487
1.3658,-0.396
1.3674,-0.414
1.369,-0.417
1.3713,-0.356
1.3736,-0.348
1.3759,-0.302
1.3793,-0.276
1.3887,0.07
1.3926,-0.279
1.3957,0.105
1.4037,-0.198
1.408,-0.189
1.4085,-0.251
1.4096,-0.502
1.4107,-0.38
1.4128,-0.521
1.415,-0.379
1.418,-0.321
1.421,-0.257
1.424,-0.231
1.427,-0.132
1.43,-0.042
1.4336,0.004
1.4372,0.136
1.4479,-0.149
1.4493,-0.063
1.4522,-0.311
1.4534,-0.74
1.4558,-0.46
1.457,-0.513
1.4582,-0.265
1.4594,-0.337
1.4618,-0.246
1.463,0.074
1.4642,0.023
1.4679,-0.339
1.4715,0.176
1.4752,0.281
1.478,0.216
1.4807,0.062
1.4835,0.112
1.4863,0.154
1.4897,0.175
1.493,-0.391
1.4967,-0.291
1.5003,-0.039
1.504,-0.106
1.5091,-0.19
1.5141,0.012
1.5165,0.144
1.519,0.297
1.5215,-0.04
1.5239,0.11
1.524,0.272
1.5242,0.214
1.5243,0.141
1.5245,-0.298
1.5246,-0.288
1.5264,-0.281
1.5283,-0.436
1.5301,-0.372
1.5319,-0.266
1.5338,-0.281
1.5356,-0.325
1.5374,0.092
1.5392,-0.319
1.5411,0.327
1.5429,-0.065
1.5431,-0.105
1.5433,-0.078
1.5435,-0.133
1.5463,0.071
1.5491,0.007
1.5519,0.155
1.5547,0.098
1.5578,0.133
1.5609,-0.159
1.564,-0.193
1.5676,-0.21
1.5711,-0.142
1.5747,-0.277
1.5782,-0.209
1.5825,-0.268
1.5826,-0.219
1.5828,-0.071
1.5829,-0.112
1.583,-0.046
1.589,-0.228
1.592,-0.06
1.595,0.009
1.598,-0.005
1.601,0.063
1.604,0.112
1.607,0.309
1.612,0.04
1.6169,-0.558
1.6287,-0.066
1.6313,-0.019
1.634,-0.027
1.6344,-0.032
1.6348,-0.175
1.6351,-0.122
1.6355,0.011
1.6359,0.209
1.6385,0.092
1.6412,0.139
1.6465,0.193
1.6501,-0.027
1.6533,-0.028
1.6564,-0.328
1.6596,-0.126
1.664,-0.128
1.6652,-0.103
1.6664,-0.157
1.6676,-0.536
1.6688,-0.518
1.67,-0.026
1.6712,-0.104
1.6724,-0.122
1.6736,-0.315
1.6749,-0.118
1.6761,-0.095
1.6768,-0.077
1.6775,-0.078
1.6782,-0.066
1.6788,-0.015
1.6795,0.007
1.6812,-0.097
1.6828,-0.014
1.6845,-0.337
1.689,-0.372
1.6934,-0.465
1.6979,-0.393
1.6995,-0.602
1.701,-0.517
1.7026,-0.431
1.7041,-0.496
1.7057,-0.432
1.7072,-0.209
1.7088,-0.366
1.7103,-0.188
1.7124,0.221
1.715,-0.33
1.7177,-0.368
1.7203,-0.26
1.7213,-0.305
1.7224,-0.402
1.7234,-0.294
1.7244,-0.208
1.7255,-0.438
1.7284,-0.405
1.7332,-0.209
1.7379,-0.402
1.7412,-0.574
1.7429,-0.489
1.7447,-0.156
1.7464,-0.311
1.7482,-0.043
1.7499,0.092
1.7517,0.041
1.7537,0.114
1.7563,0.178
1.759,0.045
1.7616,-0.107
1.7644,-0.171
1.7671,0.055
1.7699,-0.218
1.7727,-0.119
1.7755,-0.187
1.7782,-0.19
1.781,-0.649
1.7838,-0.225
1.7859,-0.527
1.7881,-0.197
1.7902,-0.437
1.7924,-0.424
1.7945,-0.293
1.7967,-0.273
1.7986,-0.144
1.7994,-0.225
1.8003,-0.54
1.8011,-0.136
1.802,-0.358
1.807,-0.472
1.8119,-0.207
1.8142,-0.238
1.8166,-0.191
1.8189,-0.131
1.8212,-0.146
1.8236,-0.168
1.8259,-0.296
1.828,-0.255
1.83,-0.495
1.8321,-0.35
1.835,-0.112
1.838,-0.24
1.8409,-0.245
1.8439,-0.211
1.8468,-0.262
1.8486,-0.013
1.8504,-0.194
1.8521,-0.088
1.8539,-0.194
1.8574,-0.125
1.8609,-0.053
1.8644,0.187
1.8679,-0.215
1.8702,0.002
1.8724,0.128
1.8747,0.049
1.8769,0.085
1.8797,0.009
1.8825,0.106
1.8852,0.055
1.888,-0.084
1.8903,-0.052
1.8913,0.098
1.8936,-0.017
1.8959,0.047
1.8983,-0.055
1.9006,-0.185
1.9041,-0.287
1.9075,-0.413
1.9083,-0.401
1.9091,-0.385
1.9099,-0.438
1.9107,-0.37
1.9115,-0.289
1.9123,-0.308
1.9131,-0.433
1.9142,-0.227
1.9153,0.017
1.9164,-0.148
1.9175,-0.198
1.9186,-0.154
1.9197,-0.12
1.9208,0.011
1.9289,-0.026
1.9371,-0.19
1.9452,-0.171
1.9456,-0.056
1.9459,-0.187
1.9463,-0.255
1.9467,-0.274
1.947,-0.326
1.9489,-0.499
1.9522,-0.392
1.9556,-0.47
1.9589,-0.284
1.9596,-0.171
1.9603,0.071
1.9612,-0.11
1.9622,-0.406
1.9631,-0.077
1.9701,0.006
1.9771,0.028
1.9811,0.06
1.9822,0.149
1.9832,-0.138
1.9843,-0.149
1.9853,-0.073
1.9863,-0.352
1.9874,-0.443
1.9892,-0.388
1.9918,-0.047
1.9943,-0.234
1.9969,-0.257
1.9996,-0.157
2.0022,-0.119
2.0049,-0.1
2.0069,-0.519
2.011,0
2.013,0.093
2.016,0.135
2.019,0.626
2.022,0.079
2.0275,0.121
2.033,0.061
2.0385,-0.033
2.0431,-0.066
2.047,-0.004
2.0509,-0.101
2.0523,0.001
2.0537,-0.064
2.0551,-0.079
2.0564,0
2.0576,-0.01
2.0589,-0.148
2.0601,-0.197
2.064,-0.301
2.0679,-0.437
2.0718,-0.439
2.0757,-0.405
2.0796,-0.477
2.0805,-0.543
2.0815,-0.538
2.0824,-0.465
2.0833,-0.513
2.085,-0.511
2.0856,-0.426
2.0862,-0.185
2.0868,-0.093
2.0874,-0.387
2.088,-0.21
2.0886,-0.613
2.0892,-0.303
2.0916,-0.262
2.0957,-0.136
2.0998,-0.323
2.1024,-0.36
2.1051,-0.316
2.1077,-0.18
2.1104,-0.325
2.113,-0.28
2.1133,-0.321
2.1137,-0.372
2.114,-0.155
2.1188,-0.422
2.1237,-0.081
2.1285,0.116
2.1333,-0.093
2.1351,-0.003
2.137,-0.165
2.1388,-0.25
2.1406,-0.265
2.1464,-0.607
2.1521,-0.378
2.1579,-0.493
2.1606,-0.521
2.1634,-0.642
2.1661,-0.595
2.1689,-0.24
2.1716,-0.716
2.1728,-0.236
2.174,-0.59
2.1752,-0.452
2.1764,-0.413
2.1776,-0.307
2.1787,-0.396
2.1799,-0.223
2.1811,-0.187
2.1823,-0.067
2.1835,-0.032
2.1849,-0.164
2.1863,-0.149
2.1876,-0.191
2.189,-0.29
2.1911,-0.237
2.1933,-0.066
2.1954,-0.237
2.1975,-0.184
2.1996,-0.392
2.2018,-0.309
2.2048,-0.356
2.2058,-0.39
2.2067,-0.45
2.2077,-0.324
2.2086,-0.354
2.2096,-0.233
2.2105,-0.19
2.2115,-0.282
2.2124,-0.33
2.2188,-0.414
2.2251,-0.353
2.2366,-0.268
2.243,-0.164
2.2493,-0.173
2.2557,-0.036
2.2563,-0.234
2.2574,0.024
2.258,-0.103
2.2585,-0.088
2.2619,-0.301
2.2625,-0.433
2.263,-0.323
2.2636,-0.246
2.2641,-0.086
2.2647,-0.123
2.2738,0.091
2.2829,-0.271
2.292,-0.116
2.2955,0.019
2.2991,-0.161
2.3027,-0.219
2.3062,-0.32
2.3086,-0.386
2.3109,-0.227
2.3133,-0.521
2.3156,-0.202
2.318,-0.338
2.3205,-0.254
2.323,-0.424
2.3259,-0.15
2.3294,-0.404
2.3329,-0.093
2.3399,-0.034
2.3411,0.266
2.3419,0.052
2.3436,0.069
2.3448,-0.479
2.3491,-0.288
2.3534,0.101
2.3578,-0.249
2.3629,-0.307
2.3652,-0.344
2.3657,-0.321
2.3662,-0.198
2.3666,-0.168
2.3671,-0.051
2.3724,-0.078
2.374,0.159
2.3751,-0.104
2.3766,-0.104
2.3777,-0.044
2.3802,-0.071
2.3819,-0.072
2.3844,0.401
2.3861,-0.108
2.3903,-0.092
2.405,-0.242
2.409,-0.022
2.41,-0.038
2.4116,-0.266
2.4131,-0.304
2.4132,0.032
2.423,-0.092
2.4296,0.07
2.4303,-0.117
2.4314,-0.005
2.4325,0.035
2.4336,0.242
2.4352,-0.195
2.4352,0.095
2.4353,0.022
2.4353,0.132
2.4354,-0.73
2.4354,0.004
2.4363,-0.171
2.4376,-0.007
2.4385,-0.336
2.4407,-0.425
2.442,0.504
2.4432,-0.226
2.445,-0.376
2.4468,-0.346
2.4492,-0.335
2.451,0.394
2.4522,-0.196
2.4539,-0.066
2.455,-0.206
2.4567,-0.035
2.4578,-0.353
2.4595,0.084
2.4606,-0.297
2.4623,-0.038
2.4634,-0.243
2.4651,0.436
2.4681,-0.069
2.4693,-0.091
2.4712,-0.154
2.4724,-0.051
2.4742,-0.164
2.4754,0.002
2.4772,-0.1
2.4774,-0.104
2.4783,-0.312
2.4786,-0.071
2.4795,-0.337
2.4797,0.401
2.4806,-0.337
2.4817,-0.266
2.4828,-0.45
2.484,-0.315
2.4851,-0.451
2.4862,-0.556
2.4873,-0.418
2.4885,-0.261
2.4896,-0.342
2.4915,0.008
2.4954,-0.046
2.4974,-0.196
2.4993,-0.529
2.5032,-0.348
2.5051,-0.571
2.5071,-0.475
2.509,-0.697
2.5152,-0.585
2.5214,-0.816
2.5225,-0.33
2.5237,-0.614
2.5249,-0.51
2.526,-0.687
2.5272,-0.661
2.5283,-0.529
2.5289,-0.623
2.5296,-0.551
2.5302,-0.442
2.5309,-0.539
2.5315,-0.437
2.5322,-0.542
2.5328,-0.559
2.5335,-0.394
2.5341,-0.235
2.5354,0.141
2.5367,0.325
2.5395,-0.096
2.5444,-1.241
2.5493,-0.096
2.5509,-0.117
2.5526,-0.181
2.5542,-0.268
2.5552,-0.361
2.5568,-0.03
2.5584,-0.056
2.56,-0.377
2.5664,-0.39
2.5699,-0.445
2.5732,-0.093
2.5765,0.347
2.5831,-0.115
2.5864,-0.433
2.5901,-0.333
2.5938,-0.215
2.5956,-0.293
2.5975,-0.842
2.5991,-0.602
2.6008,-0.364
2.6024,-0.334
2.604,-0.274
2.6056,-0.084
2.6073,-0.036
2.6089,-0.218
2.6105,0.104
2.613,-0.069
2.6155,0.387
2.618,-0.114
2.6237,-0.734
2.6293,-0.14
2.635,-0.079
2.6358,0.053
2.6366,-0.014
2.6374,0.007
2.6382,-0.243
2.639,-0.228
2.6409,-0.304
2.6427,-0.303
2.6446,-0.391
2.6464,-0.204
2.6483,-0.233
2.651,-0.527
2.6538,-0.076
2.6565,0.158
2.6593,-0.17
2.662,0.234
2.6675,-0.048
2.6703,0.157
2.673,-0.131
2.6758,-0.273
2.684,-0.07
2.6857,-1.25
2.6874,-0.309
2.6891,-0.376
2.6909,-0.358
2.6926,-0.278
2.6943,-0.303
2.696,-0.288
2.6983,-0.325
2.7005,-0.172
2.7028,-0.277
2.705,-0.629
2.7073,-0.375
2.7101,-0.485
2.713,-0.519
2.7147,-0.358
2.7158,-0.527
2.7164,-0.252
2.7168,-0.598
2.7174,-0.342
2.7178,-0.565
2.7184,-0.148
2.7188,-0.274
2.7194,-0.204
2.7198,-0.274
2.7204,-0.02
2.7208,-0.29
2.7248,-0.174
2.7275,-0.395
2.7316,0.082
2.7342,-0.287
2.7383,0.124
2.741,-0.17
2.745,0.034
2.7549,-0.013
2.7596,0.005
2.7642,0.313
2.7689,0.009
2.7706,0.123
2.7724,0.21
2.7741,-0.164
2.7758,-0.139
2.7775,-0.088
2.7793,0.036
2.781,-0.156
2.786,0.163
2.791,0.123
2.796,0.307
2.7982,0.167
2.8003,0.271
2.8025,-0.031
2.8047,0.27
2.8068,0.275
2.809,0.298
2.8137,-0.112
2.8145,-0.284
2.8154,-0.385
2.8163,-0.105
2.8172,-0.3
2.8181,-0.249
2.819,-0.097
2.8199,0.178
2.8208,0.117
2.8217,0.108
2.8226,0.075
2.8258,0.163
2.8293,-0.249
2.8329,-0.153
2.8364,0.048
2.84,-0.353
2.8428,-0.129
2.8457,-0.317
2.8485,0.013
2.8514,0.051
2.8542,0.533
2.8601,0.083
2.866,-0.062
2.8719,-0.634
2.8787,0.2
2.8854,-0.163
2.8922,-0.39
2.9003,-0.301
2.9116,-0.45
2.92,-0.174
2.9252,-0.387
2.9303,-0.055
2.9355,-0.181
2.9396,-0.132
2.9427,-0.065
2.9457,-0.465
2.9488,-0.314
2.9519,-0.171
2.9549,-0.154
2.958,-0.246
2.961,-0.124
2.9641,-0.526
2.9671,-0.225
2.9702,-0.391
2.978,-0.268
2.982,-0.147
2.9822,-0.27
2.9906,-0.769
3.0006,-0.817
3.0123,-0.404
3.0239,-0.789
3.0266,-0.369
3.0294,-0.338
3.0323,-0.456
3.0351,-0.295
3.0377,-0.444
3.04,-0.454
3.0422,-1.052
3.0445,-0.447
3.0467,-0.385
3.049,-0.545
3.0512,-0.253
3.0535,-0.461
3.058,-0.183
3.0602,-0.466
3.0625,-0.572
3.0704,-0.195
3.0783,-0.054
3.0799,-0.18
3.0815,-0.204
3.0831,-0.223
3.0847,0.016
3.0863,0.414
3.0879,-0.239
3.0895,-0.135
3.0912,0.341
3.0928,0.354
3.0944,-0.255
3.096,-0.138
3.0976,-0.167
3.0992,-0.198
3.1008,-0.105
3.1024,0.23
3.1129,0.2
3.1235,0.171
3.134,-0.091
3.1354,-0.35
3.1368,-0.3
3.1391,-0.853
3.1405,-0.6
3.1419,-0.357
3.1433,-0.428
3.1447,-0.525
3.1489,0.101
3.1536,0.273
3.1583,0.337
3.163,0.198
3.1692,0.089
3.1754,0.34
3.1817,0.34
3.1879,0.303
3.1941,-0.395
3.2035,-0.053
3.2128,-0.088
3.2145,0.408
3.2162,0.302
3.2179,-0.144
3.2196,0.118
3.2213,0.618
3.223,0.186
3.2247,0.763
3.2264,0.656
3.2281,-0.087
3.2347,0.749
3.2413,0.281
3.2479,-0.38
3.2501,0.136
3.2523,-0.075
3.2546,-0.066
3.2568,0.08
3.2612,-0.123
3.2635,0.102
3.2657,-0.081
3.2748,0.473
3.2907,0.443
3.296,-0.437
3.2997,-0.2
3.307,-0.193
3.3107,0.423
3.318,-0.277
3.32,0.119
3.324,0.452
3.3311,-0.201
3.3334,-0.509
3.3378,-0.43
3.3401,-0.348
3.3423,-0.372
3.3445,-0.212
3.3468,-0.279
3.349,-0.41
3.3512,-0.56
3.3535,-0.203
3.3557,-0.281
3.3633,-0.213
3.367,-0.267
3.3746,-0.235
3.3777,0.27
3.3792,-1.366
3.3807,-0.364
3.3823,-0.252
3.3838,-0.237
3.3853,-0.244
3.3869,-0.275
3.3884,-0.228
3.39,-0.246
3.3933,-0.085
3.3949,-0.26
3.3964,-0.18
3.4033,-0.807
3.4101,-0.251
3.417,-0.481
3.4189,-0.326
3.4208,-0.425
3.4226,-0.394
3.4245,-0.336
3.4264,-0.491
3.4283,-0.412
3.4301,-0.263
3.432,-0.316
3.4339,-0.137
3.4435,-0.271
3.453,-0.299
3.4573,-0.226
3.4617,-0.299
3.466,-0.141
3.4704,-0.222
3.4747,-0.138
3.4809,-0.143
3.4887,-0.306
3.4937,-0.458
3.4958,-0.331
3.4978,-0.331
3.4999,-0.384
3.5023,-0.35
3.5064,-0.212
3.5085,-0.407
3.5105,-0.128
3.5126,-0.159
3.5189,-0.164
3.5251,-0.249
3.5314,-0.214
3.5376,-0.283
3.5417,-0.281
3.5457,-0.337
3.5498,-0.041
3.5538,0.06
3.5578,-0.009
3.5619,0.014
3.5689,0.067
3.5725,0.018
3.576,-0.048
3.5795,0.003
3.5823,-0.106
3.585,0.177
3.5878,0.017
3.5905,-0.027
3.5933,-0.161
3.596,-0.007
3.5987,-0.056
3.6015,-0.153
3.6044,0.491
3.6073,-0.077
3.6102,-0.191
3.6131,-0.163
3.616,-0.174
3.6192,-0.228
3.6224,-0.269
3.6256,-0.233
3.6288,-0.051
3.632,0.22
3.6352,0.046
3.6384,0.043
3.6416,-0.117
3.6444,0.006
3.6472,-0.156
3.6499,-0.231
3.6527,-0.074
3.6599,-0.034
3.6643,-0.087
3.6687,0.033
3.6732,0.02
3.6776,0.118
3.682,0.323
3.6862,0.072
3.6904,0.029
3.6946,0.021
3.6978,-0.095
3.701,0.021
3.7041,-0.144
3.7073,-0.27
3.7105,-0.094
3.7137,-0.275
3.7168,-0.181
3.72,-0.185
3.723,-0.071
3.726,0.005
3.729,-0.074
3.732,-0.087
3.735,-0.192
3.738,-0.228
3.741,-0.19
3.7457,-0.305
3.7503,-0.361
3.755,-0.186
3.7596,-0.275
3.7642,-0.088
3.7689,-0.066
3.7756,0.039
3.7823,0.069
3.789,-0.146
3.7957,-0.077
3.7962,-0.265
3.7966,-0.281
3.797,-0.453
3.7974,-0.345
3.7978,-0.069
3.7982,-0.364
3.7986,-0.209
3.799,-0.064
3.7993,0.387
3.8001,-0.459
3.8005,-1.013
3.8009,0.002
3.8013,-0.11
3.8017,-0.326
3.8021,-0.135
3.8024,-0.252
3.8028,-0.213
3.8032,0.044
3.8036,-0.086
3.804,0.04
3.8045,0.001
3.8049,-0.12
3.8058,0.026
3.8063,-0.115
3.8067,-0.201
3.8072,-0.169
3.809,-0.042
3.8108,0.067
3.8125,-0.033
3.8143,-0.162
3.8161,0
3.8179,-0.222
3.8196,-0.259
3.8214,-0.463
3.825,-0.634
3.8268,-0.58
3.8285,-0.49
3.8303,-0.466
3.8321,-0.259
3.8339,-0.107
3.8356,-0.22
3.8374,-0.117
3.8392,-0.15
3.8453,-0.148
3.8513,-0.097
3.8595,-0.37
3.8636,-0.602
3.8677,-0.495
3.8718,-0.562
3.8759,-0.12
3.8924,-0.215
3.9049,-0.093
3.9082,-0.446
3.9116,-0.072
3.9149,-0.127
3.9182,-0.207
3.9215,-0.157
3.9249,-0.325
3.9282,-0.223
3.933,-0.287
3.9378,-0.308
3.9429,-0.573
3.948,-0.67
3.953,-0.615
3.9581,-0.265
3.9673,-0.374
3.9724,-0.435
3.9752,-0.379
3.9759,-0.262
3.9766,-0.234
3.9772,-0.07
3.9779,0.072
3.9881,-0.931
3.9984,-0.702
4.0017,-0.479
4.0051,0.007
4.0084,0.047
4.0118,-0.169
4.0151,-0.258
4.0204,-0.226
4.0256,-0.276
4.0309,-0.359
4.0361,-0.429
4.0414,-0.222
4.0452,-0.174
4.0489,-0.341
4.0527,0.159
4.0565,-0.127
4.0602,-0.056
4.064,-0.095
4.0709,-0.278
4.0792,-0.26
4.0862,-0.357
4.0931,-0.399
4.1,-0.353
4.1014,-0.302
4.1028,-0.193
4.1042,-0.174
4.1056,0.028
4.107,0.086
4.12,-0.018
4.133,0.045
4.1372,-0.309
4.1419,-0.185
4.1461,-0.124
4.156,-0.171
4.166,-0.051
4.1815,-0.167
4.197,-0.29
4.208,-0.199
4.2085,-0.203
4.209,-0.322
4.217,-0.175
4.225,-0.188
4.233,-0.217
4.2378,-0.26
4.2425,-0.348
4.2473,-0.217
4.253,0.02
4.2693,-0.271
4.2803,-0.271
4.289,-0.205
4.2943,-0.128
4.2996,-0.056
4.3049,-0.138
4.3101,-0.172
4.3154,-0.234
4.3204,-0.264
4.3248,-0.176
4.3292,-0.141
4.3336,-0.114
4.338,-0.175
4.3452,-0.149
4.3524,-0.264
4.3595,-0.077
4.3667,-0.162
4.3696,-0.205
4.3773,-0.218
4.3849,-0.221
4.4014,-0.319
4.4103,-0.558
4.4192,-0.312
4.4281,-0.135
4.4339,-0.327
4.4397,-0.299
4.4455,-0.276
4.4508,-0.237
4.456,-0.254
4.4624,-0.142
4.4688,-0.186
4.4752,-0.315
4.481,-0.361
4.486,-0.387
4.491,-0.452
4.496,-0.307
4.501,-0.08
4.506,-0.145
4.512,-0.076
4.5179,-0.318
4.5239,-0.261
4.5287,-0.14
4.5335,-0.235
4.5358,-0.273
4.543,-0.345
4.5475,-0.485
4.5542,-0.171
4.5608,-0.304
4.565,-0.9
4.5685,-0.221
4.5721,-0.248
4.5739,-0.394
4.5756,-0.388
4.5774,-0.093
4.5792,-0.205
4.581,-0.107
4.5827,-0.158
4.5845,-0.185
4.5909,0.005
4.5972,-0.467
4.6036,-0.1
4.6058,-0.257
4.6085,-0.323
4.6113,-0.282
4.614,-0.238
4.6167,-0.112
4.6195,-0.202
4.6222,-0.125
4.625,0.027
4.6304,-0.012
4.6332,0.008
4.6359,-0.025
4.6377,0.131
4.6395,-0.064
4.6413,0.09
4.6431,-0.232
4.6449,-0.038
4.6481,-0.024
4.6513,-0.147
4.6545,-0.277
4.6576,0.001
4.6608,-0.106
4.664,-0.198
4.6672,-0.028
4.6704,0.019
4.6727,-0.003
4.675,-0.035
4.6774,-0.12
4.6797,-0.121
4.682,-0.194
4.6879,-0.24
4.6939,-0.255
4.6998,-0.269
4.7058,-0.062
4.7117,-0.056
4.7145,-0.051
4.7173,-0.1
4.7201,-0.163
4.7229,-0.106
4.7254,-0.084
4.7278,-0.284
4.7303,-0.209
4.7328,-0.229
4.7377,0.113
4.7402,-0.198
4.7427,-0.257
4.7451,-0.01
4.7476,-0.134
4.7501,0.024
4.7525,0.07
4.755,-0.049
4.7561,-0.015
4.7573,-0.248
4.7584,0.018
4.7595,-0.027
4.7626,-0.05
4.7656,-0.131
4.7687,-0.375
4.7718,-0.271
4.7749,-0.181
4.7779,-0.277
4.781,0.059
4.7816,-0.135
4.7847,-0.107
4.7894,-0.139
4.794,-0.157
4.7987,-0.126
4.8015,-0.162
4.8072,-0.268
4.81,-0.289
4.8129,-0.346
4.8185,-0.253
4.8213,-0.201
4.8242,-1.384
4.827,-0.106
4.8321,-0.017
4.8372,-0.101
4.8423,-0.064
4.8472,-0.186
4.8521,-1.166
4.857,-0.792
4.8618,-0.246
4.8667,-0.383
4.8765,-0.707
4.8785,-0.284
4.8801,-0.519
4.882,-0.16
4.884,-0.036
4.8863,-1.007
4.8915,-0.231
4.8942,-0.088
4.8968,-0.473
4.8994,-0.072
4.902,-0.01
4.9081,-0.201
4.9141,-0.167
4.9201,-0.362
4.9262,-0.304
4.9296,-0.319
4.9329,-0.567
4.9397,-0.683
4.9431,-0.285
4.9464,-0.311
4.9498,-0.326
4.9527,-0.274
4.9555,-0.432
4.9584,-0.316
4.9613,-0.154
4.9641,-0.14
4.967,-0.013
4.969,0.059
4.971,-0.366
4.973,-0.311
4.9749,-0.313
4.9769,-0.07
4.9789,-0.115
4.9809,-0.388
4.9829,-0.207
4.9849,-0.25
4.9869,-0.313
4.9888,-0.179
4.9908,0.005
4.9928,-0.234
4.9948,0.037
4.9968,-0.075
5.0008,-0.529
5.0027,-0.154
5.0047,-0.254
5.0067,-0.162
5.0087,-0.292
5.0107,-0.245
5.0127,-0.165
5.0147,-0.146
5.0166,-0.132
5.0206,-0.103
5.0281,-0.225
5.0306,-0.196
5.033,-0.215
5.0353,-0.143
5.0512,0.016
5.0542,-0.415
5.0563,-0.488
5.0593,-0.315
5.0621,-0.177
5.0646,-0.077
5.0669,0.034
5.0699,-0.033
5.0727,0.24
5.0752,0.117
5.0767,0.011
5.0794,0.019
5.082,-0.062
5.0852,0.007
5.0888,-0.211
5.0915,-0.173
5.0941,-0.166
5.0968,-0.116
5.0995,0.036
5.1027,0.098
5.1043,0.21
5.1077,-0.127
5.1111,-0.02
5.1146,0.093
5.118,-0.086
5.1214,-0.026
5.1248,-0.147
5.1282,-0.28
5.1316,-0.374
5.135,-0.335
5.138,-0.37
5.1384,-0.375
5.1418,-0.169
5.1451,-0.138
5.1485,-0.156
5.1518,-0.049
5.1552,-0.054
5.1585,-0.234
5.1619,-0.251
5.1652,-0.238
5.1686,-0.472
5.1715,-0.469
5.1724,-0.617
5.1757,-0.708
5.1775,-0.478
5.1792,-0.281
5.1809,-0.145
5.1826,-0.405
5.1843,-0.236
5.186,-0.404
5.1877,-0.191
5.1894,-0.424
5.1908,-0.309
5.1925,-0.324
5.1942,-0.553
5.1959,-0.809
5.1976,-0.462
5.1993,-0.441
5.201,-0.51
5.202,-0.285
5.2027,-0.306
5.2037,-0.031
5.2044,-0.218
5.2058,-0.046
5.2075,-0.164
5.2093,-0.214
5.211,-0.207
5.2128,-0.709
5.215,-0.55
5.2171,-0.426
5.2186,-0.389
5.22,-0.242
5.222,-0.101
5.224,-0.111
5.2263,-0.152
5.2281,-0.121
5.2302,-0.01
5.2321,-0.259
5.2341,-0.327
5.236,-0.429
5.2377,-0.368
5.2394,-0.139
5.2411,-0.133
5.2428,-0.139
5.2445,-0.137
5.2467,0.069
5.2479,-0.016
5.2496,-0.011
5.2513,-0.128
5.2525,-0.047
5.2542,-0.297
5.2559,-0.367
5.2576,-0.443
5.2593,-0.436
5.2612,-0.333
5.2631,-0.286
5.2639,-0.076
5.265,-0.001
5.2658,-0.058
5.2669,-0.122
5.2677,0.05
5.2688,-0.068
5.2695,-0.06
5.2707,-0.305
5.2714,-0.045
5.2723,-0.24
5.2733,-0.256
5.2743,-0.069
5.2752,-0.206
5.2768,-0.243
5.2771,-0.093
5.279,-0.137
5.279,-0.047
5.2809,-0.107
5.2831,-0.82
5.285,-0.145
5.2869,-0.139
5.2888,-0.101
5.2907,-0.071
5.2925,-0.231
5.2944,-0.22
5.2963,-0.308
5.2982,-0.461
5.3001,-0.625
5.3031,-0.389
5.3062,-0.183
5.3093,-0.062
5.3125,-0.146
5.3156,0.013
5.3188,-0.038
5.3218,-0.071
5.3251,0.004
5.3282,-0.022
5.3297,-0.172
5.3313,-0.068
5.3328,0.01
5.3341,-0.382
5.336,0.132
5.3372,-0.317
5.3391,0.198
5.3403,-0.356
5.3418,0.244
5.3444,0.195
5.347,0.049
5.3496,0.413
5.3522,0.276
5.3548,0.221
5.3569,0.35
5.3595,0.153
5.3621,0.258
5.3647,0.201
5.3673,-0.15
5.3699,0.153
5.3725,0.17
5.3751,-0.079
5.3777,0.108
5.3803,0.034
5.3828,0.041
5.3853,0.061
5.3879,-0.062
5.3904,0.023
5.393,0.027
5.3955,0.129
5.398,0.165
5.4006,0.2
5.4031,0.021
5.4056,0.229
5.4078,-0.083
5.4104,0.192
5.4129,0.056
5.4155,0.042
5.418,-0.201
5.4205,-0.186
5.4231,-0.149
5.4256,-0.18
5.4279,-0.062
5.4303,-0.172
5.433,0.109
5.4353,0.222
5.4377,0.269
5.44,0.303
5.4424,0.136
5.4448,-0.005
5.4471,0.106
5.4569,-0.066
5.4578,-0.028
5.4589,-0.011
5.46,-0.036
5.4613,0.049
5.4625,-0.086
5.4636,0.086
5.4645,-0.227
5.4686,-0.072
5.4733,0.068
5.4779,-0.217
5.4826,-0.261
5.4861,-0.1
5.4891,-0.052
5.4896,-0.125
5.4931,-0.127
5.4966,-0.171
5.5012,-0.93
5.5038,-0.157
5.5064,-0.023
5.5097,0.125
5.5123,0.041
5.5148,0.257
5.5161,0.052
5.5173,0.257
5.5182,0.232
5.5187,-0.013
5.5202,0.225
5.5212,-0.004
5.5232,0.074
5.5237,-0.12
5.5263,0.052
5.5288,0.045
5.5313,0.087
5.5339,-0.071
5.5364,-0.174
5.5389,-0.351
5.5411,-0.375
5.5436,-0.383
5.5462,-0.446
5.549,-0.266
5.5518,-0.062
5.5545,-0.128
5.5573,-0.013
5.5601,0.037
5.5629,0.054
5.5657,-0.002
5.5685,-0.078
5.5713,0.03
5.5741,-0.104
5.5769,-0.032
5.5797,-0.173
5.5825,-0.219
5.5853,-0.039
5.588,-0.261
5.5902,-0.146
5.5925,-0.116
5.5943,-0.142
5.5951,-0.136
5.5974,-0.021
5.5996,0.045
5.6019,0.008
5.6042,-0.419
5.6065,-0.004
5.6087,-0.073
5.611,-0.18
5.6133,0.028
5.6156,0.056
5.6178,0.014
5.6201,-0.006
5.6224,-0.038
5.6247,-0.054
5.6269,-0.035
5.6292,-0.298
5.6315,0.107
5.6346,0.02
5.6384,-0.053
5.6421,-0.048
5.6454,0.02
5.6491,-0.016
5.6529,0.034
5.6566,0.294
5.6604,0.039
5.6641,0.02
5.6679,0.146
5.6716,0.068
5.6746,0.137
5.6775,0.211
5.6807,0.105
5.6835,-0.018
5.6864,-0.041
5.6883,-0.524
5.6911,-0.205
5.694,-0.953
5.6968,0.71
5.6994,-0.373
5.7025,-0.253
5.7053,-0.191
5.7082,-0.318
5.711,-0.375
5.7136,-0.353
5.7158,-0.424
5.7183,-0.229
5.7209,-0.169
5.7235,-0.083
5.726,-0.065
5.7286,0.022
5.7312,0.05
5.7337,-0.041
5.7363,0.031
5.7388,-0.116
5.7418,-0.04
5.7443,-0.232
5.7469,-0.237
5.7494,-0.463
5.752,-0.489
5.7546,-0.51
5.7568,-0.516
5.759,-0.382
5.7612,-0.2
5.7634,-0.198
5.7656,-0.183
5.7678,-0.338
5.77,-0.318
5.7723,-0.235
5.7745,-0.297
5.7767,-0.315
5.7789,-0.314
5.7811,-0.468
5.7833,-0.359
5.7855,-0.523
5.7882,-0.338
5.7904,-0.227
5.7926,-0.16
5.7948,-0.893
5.7974,0.14
5.7983,-0.562
5.8,-0.034
5.8008,-0.122
5.8025,-0.266
5.8034,-0.036
5.8051,-0.351
5.8059,-0.142
5.8077,-0.24
5.8085,-0.315
5.8103,-1.184
5.8111,-0.257
5.8123,-0.361
5.8137,-1.215
5.8149,-0.423
5.8162,-0.829
5.8188,-0.377
5.8214,-0.423
5.824,-0.304
5.8265,-0.353
5.8291,-2.292
5.8313,-1.108
5.8342,-0.652
5.8362,-0.743
5.8381,-0.446
5.8401,-0.192
5.842,-0.173
5.844,-0.225
5.8469,0.075
5.8498,-1.044
5.8517,-0.059
5.8536,0.086
5.8556,-0.131
5.8575,-0.073
5.8595,0.071
5.8614,0.085
5.8633,0.12
5.8653,0.121
5.8672,0.652
5.8694,0.145
5.8712,0.269
5.873,0.321
5.875,0.146
5.8769,0.106
5.8788,0.09
5.8807,-0.029
5.8826,-0.122
5.8844,-0.137
5.9113,0.416
5.9132,-0.26
5.9151,-1.531
5.9173,-0.356
5.9194,-0.353
5.9216,-0.22
5.9237,-0.89
5.9259,-1.004
5.9276,-0.077
5.9298,0.011
5.9319,-1.471
5.9342,-0.473
5.9765,-1.546
5.9786,-1.95
5.9808,-1.086
5.9829,-1.64
5.9851,-0.9
5.9872,-0.927
5.9894,-0.82
5.9915,-0.079
5.9937,-0.073
5.9958,-1.477
5.9983,-1.545
6.0004,-0.195
6.0026,-0.531
6.0048,-0.154
6.0069,-1.564
6.0091,-0.514
6.0112,-0.734
6.0155,-1.436
6.0177,-0.647
6.0198,-1.501
6.022,-0.835
6.0241,-0.743
6.0263,-1.009
6.0284,-0.339
6.0306,-1.682
6.0328,-0.77
6.0349,-1.128
6.0369,-1.365
6.0389,-0.705
6.0412,-0.629
6.0432,-1.156
6.0451,-1.05
6.0471,-1.173
6.049,-1.635
6.0509,-1.361
6.0529,-1.503
6.0548,-1.221
6.0568,-1.525
6.0587,-0.733
6.0603,-0.236
6.0642,-1.535
6.0661,-0.556
6.068,-1.038
6.07,-1.502
6.0719,-1.145
6.0739,-1.704
6.0758,-0.788
6.0778,-0.975
6.0794,-1.542
6.0814,-1.35
6.0834,-0.526
6.0854,-1.155
6.0874,-1.26
6.0894,-0.992
6.0914,-0.958
6.0934,0.061
6.0954,-1.39
6.0974,0.053
6.0996,0.083
6.1036,-1.147
6.1043,-0.859
6.1063,-1.11
6.1083,-1.087
6.1103,-0.455
6.1122,-0.606
6.1142,-0.985
6.1162,-1.971
6.1182,-1.474
6.1207,-1.311
6.1241,-1.364
6.1274,0.042
6.1308,0.057
6.1347,-1.083
6.1384,-0.244
6.1423,-0.102
6.1464,0.055
6.1503,0.207
6.1549,-0.602
6.1586,-0.89
6.1616,-1.139
6.1643,0.059
6.1669,-0.128
6.1698,-0.285
6.1729,-0.478
6.1755,-0.407
6.1781,-0.675
6.1861,-0.476
6.1866,-0.921
6.1889,-0.121
6.1914,-0.224
6.194,-0.81
6.1968,-0.331
6.1992,-0.516
6.2016,-0.876
6.2034,-0.151
6.2054,-0.195
6.2071,-0.582
6.2086,-0.674
6.2094,-0.664
6.2112,-0.886
6.213,-0.824
6.2145,-0.489
6.2165,-0.318
6.2184,-0.655
6.2198,-0.64
6.222,-0.41
6.2236,-0.41
6.2255,-0.71
6.2273,-0.54
6.229,-0.33
6.2308,-0.16
6.2328,-0.09
6.2348,-0.74
6.2366,-0.63
6.2386,-0.81
6.2408,-1.08
6.243,-0.053
6.245,0.103
6.2468,-0.118
6.2477,-0.352
6.2486,-0.35
6.2495,0.287
6.2513,-0.121
6.2527,-1.055
6.2562,-0.53
6.258,-0.16
6.2598,0.178
6.2616,0.309
6.2633,0.444
6.2651,-0.54
6.2669,-0.26
6.2687,-0.454
6.2704,-0.67
6.2722,-0.68
6.274,-0.2
6.2758,-0.78
6.2775,-0.775
6.2797,0.246
6.2811,-1.07
6.2829,-1.34
6.2846,-0.25
6.2863,-0.16
6.2897,-0.22
6.2912,-0.403
6.2947,-0.49
6.2964,-0.2
6.2981,-0.19
6.2998,-0.17
6.3016,-0.191
6.3033,-0.067
6.305,-0.34
6.3067,-0.891
6.309,-0.127
6.3107,-0.841
6.3125,-0.722
6.3142,-0.223
6.3159,-1.156
6.3183,-0.215
6.3207,-1.507
6.3231,-1.161
6.3254,-1.151
6.3278,-1.465
6.3297,-1.003
6.3321,-1.012
6.3345,-0.801
6.3369,-1.376
6.3394,-1.153
6.3417,-1.403
6.344,-0.364
6.3464,-0.605
6.3488,-1.085
6.3512,-0.769
6.3536,-0.64
6.356,-0.301
6.3583,-0.411
6.3607,-0.69
6.3631,-0.953
6.3654,-0.858
6.3677,-0.421
6.3699,-0.888
6.3722,-0.492
6.3745,-0.159
6.3765,-1.432
6.3787,-0.849
6.381,-0.648
6.3871,-1.097
6.3894,-0.934
6.3917,-1.015
6.3939,-0.788
6.3962,-1.048
6.3985,-0.715
6.4008,-0.779
6.4031,-1.604
6.4063,-1.35
6.4097,-1.16
6.4142,-0.7
6.4176,-1.41
6.421,-0.78
6.4244,-1.35
6.4278,-0.16
6.4312,-0.94
6.4345,-1.3
6.4379,-0.49
6.4413,-0.47
6.4447,-1.31
6.4471,-1.37
6.449,-0.93
6.451,-0.59
6.453,-0.4
6.4549,-0.17
6.4569,-0.72
6.4589,-0.78
6.4608,-1.09
6.4628,-0.33
6.4647,-0.9
6.4667,-0.58
6.4684,-0.86
6.4706,-1.01
6.4726,-0.17
6.4746,-0.07
6.4765,-0.14
6.4785,-0.7
6.4805,-0.57
6.4824,-1.24
6.4844,-0.67
6.4861,-1.28
6.4881,-0.91
6.4904,-1.04
6.4928,-0.39
6.4952,-0.8
6.4979,-1.06
6.5003,-0.52
6.5026,-0.34
6.505,-0.18
6.5074,-0.28
6.5103,-0.31
6.5126,-0.88
6.515,-1.53
6.5174,-0.64
6.5198,-1.11
6.5222,-1.52
6.5245,-1.23
6.5269,-1.22
6.5293,-1.68
6.5317,-1.88
6.5335,-1.3
6.5357,-1.05
6.5439,-0.79
6.5775,-0.46
6.5798,-0.45
6.582,-0.47
6.5845,-1.31
6.5865,-0.92
6.5892,-1.27
6.5914,-1.83
6.5937,-1.85
6.5959,-0.81
6.5981,-1.24
6.6004,-1.56
6.6026,-1.2
6.6049,-1.68
6.6071,-1.18
6.6093,-1.13
6.6108,-1.8
6.6131,-0.33
6.6154,-0.59
6.6176,-0.3
6.6199,-0.32
6.6222,-0.28
6.6244,-0.4
6.6267,-0.52
6.6289,-0.24
6.6312,-0.32
6.6338,-0.35
6.636,-0.21
6.6383,-0.12
6.6406,-0.1
6.6428,-0.36
6.6451,-0.32
6.6473,-1.69
6.6496,-2.27
6.6519,-0.27
6.6541,-0.18
6.6564,-0.616
6.6585,-0.66
6.6607,-0.35
6.6629,-0.96
6.665,-0.3
6.6672,-0.37
6.6693,-0.31
6.6715,-0.25
6.6737,-0.51
6.6758,-0.07
6.678,-0.23
6.6801,-0.45
6.6823,-0.29
6.6878,-0.21
6.6899,-0.21
6.6921,-0.29
6.6943,-0.17
6.6964,-0.14
6.6986,-0.08
6.7012,-0.26
6.7033,-0.19
6.7055,-0.42
6.7076,-0.11
6.7097,-1.07
6.7118,-0.51
6.714,-1.61
6.7161,-0.1
6.7183,-0.51
6.7205,-0.41
6.7226,-0.24
6.7235,-0.15
6.7248,-0.45
6.7269,-0.09
6.7291,-0.31
6.7334,-0.25
6.7356,-0.4
6.7377,-0.5
6.7399,-0.55
6.7423,-0.28
6.7446,-0.43
6.7469,-0.49
6.7492,-0.53
6.7516,-0.72
6.7544,-0.34
6.7567,-0.6
6.759,-0.39
6.7614,-0.29
6.7637,-0.25
6.766,-0.47
6.7683,-0.09
6.7707,-0.67
6.773,-0.74
6.7753,-0.4
6.7769,-0.33
6.7789,-0.33
6.7809,-0.05
6.7828,-0.15
6.7848,-0.21
6.7867,-0.15
6.7887,-0.26
6.7906,0.24
6.7926,-0.33
6.7946,-0.27
6.7965,-0.24
6.7985,0.02
6.8004,-0.42
6.8024,-0.52
6.8043,0.21
6.8054,0.02
6.8075,-0.29
6.8094,-0.23
6.8111,-0.26
6.8153,-0.6
6.8169,-1.25
6.8201,-0.45
6.8228,-0.35
6.8272,0.12
6.83,0.11
6.8327,-1.12
6.8354,0.37
6.8382,-0.18
6.8409,-0.36
6.8437,-0.96
6.8464,-0.69
6.8492,-0.24
6.8519,-0.24
6.8541,-0.49
6.8568,-0.27
6.8623,-0.16
6.8648,-0.33
6.8673,-0.13
6.8699,0.08
6.8724,-0.03
6.875,-0.14
6.8775,0.05
6.8801,-0.02
6.8826,-0.07
6.8852,0.01
6.8877,-1.17
6.8903,0.02
6.8928,0.08
6.8954,-0.42
6.8981,-0.58
6.9014,-0.089
6.9046,0.302
6.9108,0.565
6.914,-0.245
6.9173,0.493
6.9206,-0.132
6.9238,-0.478
6.9271,-0.698
6.9304,-0.551
6.9337,-0.139
6.9369,-0.421
6.9403,-0.192
6.9424,-0.33
6.9445,-0.08
6.9467,0.49
6.9488,0.61
6.9498,-0.63
6.9519,-0.76
6.954,-0.21
6.9571,-0.36
6.9592,-0.48
6.9612,-0.42
6.964,-0.5
6.9661,-0.26
6.9686,-0.41
6.9703,-0.75
6.9721,-0.62
6.9742,-0.59
6.9763,-0.93
6.9784,-0.79
6.9806,0.1
6.9808,-0.8
6.9844,0.13
6.9937,-0.47
6.9963,-0.22
6.9989,-0.5
7.0016,-1.69
7.0042,-0.97
7.0068,-0.22
7.0096,-0.46
7.012,-0.27
7.0154,-0.18
7.019,-1.41
7.0207,-1.66
7.0229,-0.17
7.0252,-0.29
7.0276,-0.52
7.0296,-0.28
7.0318,-0.56
7.034,-0.11
7.0363,-1.44
7.0385,-0.18
7.0407,0.16
7.0428,-0.32
7.045,-0.09
7.0472,-0.21
7.0499,-0.03
7.0525,-0.14
7.0548,-0.2
7.057,-0.5
7.0598,-0.45
7.062,0.07
7.0638,-0.23
7.0646,-0.41
7.0666,-0.16
7.0687,-0.41
7.0703,-0.19
7.0718,-0.03
7.0744,-0.86
7.0765,-1.15
7.0785,-0.29
7.0805,-0.33
7.0824,-0.37
7.0843,-0.45
7.0862,-0.19
7.0883,0.09
7.0906,-0.56
7.0929,-0.08
7.0949,-0.14
7.0969,0.14
7.0986,-0.03
7.1006,0.4
7.1035,0.22
7.105,-0.06
7.1075,0.29
7.1101,0.21
7.1124,-0.328
7.116,-0.387
7.1188,-0.063
7.1213,-0.04
7.1244,0.025
7.1266,-0.432
7.1293,0.19
7.1304,0.05
7.1328,0.35
7.1394,-0.1
7.1418,-1.22
7.1438,-1.08
7.1457,0.18
7.1477,0.32
7.1496,0.17
7.1516,-0.991
7.1535,0.09
7.1554,-0.446
7.1574,0.23
7.1593,-0.135
7.1613,0.21
7.1632,0.46
7.1652,0.17
7.1671,0.37
7.169,0.05
7.171,-0.53
7.1729,0.02
7.1749,0.5
7.1768,0.29
7.1791,0.2
7.1811,0.38
7.1831,0.07
7.1876,0.15
7.1921,0.17
7.1966,-0.1
7.2011,0.25
7.2056,-0.01
7.2101,0.39
7.2146,0.41
7.2176,0.38
7.2221,-0.91
7.2243,0.02
7.2263,0.42
7.2284,-0.36
7.2304,0.38
7.2325,0.36
7.2345,0.42
7.2366,-0.11
7.2386,0.09
7.2408,0.19
7.2427,-0.23
7.2448,0.36
7.2468,0.29
7.2489,0.11
7.2502,0.3
7.2509,0.13
7.2524,0.13
7.2544,0.33
7.2568,0.48
7.2589,0.45
7.2611,-0.35
7.263,-0.13
7.2648,0.14
7.2668,0.26
7.2685,0.35
7.2695,0.11
7.2713,0.26
7.2732,0.22
7.2747,0.46
7.2768,0.4
7.2786,-0.17
7.2805,0.17
7.2821,0.1
7.2867,0.12
7.2876,0.32
7.2885,0.29
7.2894,-0.13
7.2903,-0.1
7.2912,0.27
7.2921,-0.08
7.2933,0.36
7.2939,0.04
7.2957,0.22
7.2975,0.14
7.2993,-0.05
7.3011,-0.12
7.3031,0.3
7.3057,0.23
7.3084,0.27
7.3111,0.33
7.3137,0.33
7.3164,-0.33
7.319,0.06
7.3217,0.23
7.3244,0.05
7.327,0.2
7.3297,0.25
7.3329,0
7.3355,0.27
7.3382,0.07
7.3409,0.32
7.3435,0.58
7.3459,-0.25
7.3483,-0.08
7.3507,0.45
7.3531,0.04
7.3555,0.48
7.3574,0.24
7.3622,0.17
7.4378,-0.81
7.4389,-0.33
7.44,-0.94
7.4411,-0.08
7.4424,-0.64
7.4431,-0.12
7.4439,-0.66
7.4451,0.46
7.4466,-0.45
7.4472,0.76
7.4492,0.32
7.4512,0.67
7.4533,0.52
7.4553,0.53
7.4573,0.53
7.4594,0.39
7.4614,0.63
7.464,-0.09
7.468,0.58
7.4719,0.08
7.4758,0.43
7.4797,0.27
7.4836,0.14
7.4876,0.32
7.4915,0
7.4943,0.33
7.4962,0.26
7.4993,-0.37
7.5001,0.25
7.503,0.19
7.5034,0.14
7.5051,0.3
7.5057,0.32
7.5079,-0.19
7.5082,0
7.51,0.41
7.5118,-0.02
7.5121,0.2
7.5144,0.12
7.5166,0.26
7.5189,0.14
7.521,0.04
7.5232,-0.01
7.5255,0.23
7.5274,0.32
7.5292,-0.02
7.5318,0.31
7.5342,0.34
7.5367,0.09
7.539,0.41
7.5412,0.12
7.5435,0.29
7.5455,0.22
7.5474,0.36
7.5489,0.3
7.5507,0.23
7.5525,0.021
7.5542,0.4
7.5559,-0.32
7.5582,0.28
7.5602,-0.15
7.5614,0.27
7.5634,0.42
7.5651,0.4
7.5671,0.34
7.5691,0.4
7.5703,0.39
7.5722,-0.02
7.5734,0.02
7.575,0.41
7.5771,0.519
7.578,0.381
7.5798,0.494
7.5815,0.41
7.584,0.651
7.5847,0.28
7.5858,0.44
7.5864,0.15
7.5875,0.15
7.5881,0.3
7.5892,0.72
7.5899,0.31
7.5916,-0.03
7.5933,0.27
7.595,0.1
7.5952,0.72
7.5967,0.04
7.5971,0.588
7.5984,-0.28
7.5988,0.707
7.6001,-0.07
7.6019,0.41
7.6036,0.23
7.6053,0.21
7.607,0.27
7.6087,0.45
7.6104,0.44
7.6121,0.33
7.6138,0.33
7.6156,0.645
7.6173,-0.02
7.6192,0.15
7.6209,0.57
7.6221,0.794
7.6226,0.52
7.6239,0.53
7.6244,0.35
7.6254,-0.27
7.6272,-0.31
7.6278,0.34
7.629,0.386
7.6295,0.672
7.6305,0.18
7.6312,0.31
7.6325,0.303
7.6344,0.25
7.6365,-0.31
7.6375,0.05
7.6393,0.454
7.641,0.57
7.643,-0.25
7.6445,0.38
7.6459,0.25
7.6476,0.703
7.6496,-0.03
7.6515,0.49
7.6542,0.35
7.6563,0.726
7.6581,0.42
7.6598,0.27
7.6621,0.557
7.6639,0.44
7.6656,0.4
7.6679,0.718
7.6702,-1.76
7.6719,-0.568
7.6736,0.626
7.6753,0.563
7.6771,0.62
7.6787,0.858
7.6804,-0.17
7.6827,0.3
7.6839,0.28
7.6856,0.719
7.6873,0.732
7.6884,0.529
7.6906,0.07
7.6929,0.35
7.6952,0.04
7.6973,0.75
7.6997,0.2
7.7018,0.58
7.7067,0.7
7.7092,0.586
7.7117,0.601
7.7142,0.04
7.7162,-0.07
7.7187,0.69
7.7212,0.877
7.7237,0.633
7.7262,0.61
7.7287,0.69
7.7312,0.573
7.7337,0.926
7.7362,0.877
7.7387,0.62
7.7408,0.529
7.7433,0.68
7.7458,-0.09
7.7478,0.43
7.7498,0.65
7.7518,0.72
7.7541,0.61
7.7561,0.68
7.7581,0.71
7.7602,0.67
7.7622,0.39
7.7642,0.8
7.7662,0.63
7.7678,0.73
7.7702,0.07
7.7722,0.69
7.7743,0.78
7.7763,0.84
7.7783,-0.34
7.7803,0.9
7.7823,0.96
7.7843,0.3
7.7864,0.6
7.7884,0.54
7.7904,0.61
7.7925,0.57
7.7945,0.43
7.7965,0.82
7.7985,-0.1
7.8006,0.65
7.8023,-0.02
7.8044,0.62
7.8064,0.65
7.8084,0.5
7.8104,0.72
7.8125,0.44
7.8145,0.61
7.8165,0.88
7.8305,0.69
7.8329,0.37
7.8352,0.61
7.8376,0.38
7.84,0.26
7.8424,0.71
7.8447,0.35
7.8471,0.05
7.8495,0.57
7.8519,0.88
7.8547,0.71
7.8571,0.26
7.8595,-0.24
7.8619,0.65
7.8642,-0.23
7.8666,0.46
7.869,-0.22
7.8714,0.74
7.8731,0.05
7.8748,0.69
7.8761,0.81
7.8778,0.59
7.8795,-0.4
7.8812,0.33
7.8828,0.26
7.8845,-0.3
7.8862,0.27
7.8879,0.08
7.8895,-0.12
7.8912,0.26
7.8927,0.63
7.8943,0.36
7.896,0.21
7.8977,0.28
7.8994,-0.33
7.901,0.27
7.9027,-0.63
7.9044,-0.72
7.9077,0.14
7.911,-0.22
7.9147,0.21
7.918,0.21
7.9213,-0.27
7.9246,0.6
7.9278,-0.39
7.9311,-0.46
7.9344,0.24
7.9377,-0.53
7.941,0.41
7.9443,0.47
7.9476,-0.83
7.9506,0.35
7.9511,-0.712
7.9536,0.04
7.9557,0.495
7.9577,0.41
7.9597,-0.39
7.9623,-0.01
7.9641,0.39
7.9661,0.22
7.9674,0.01
7.9697,0.1
7.9721,0.01
7.9743,0.08
7.9788,0.531
7.9788,0.32
7.981,-0.438
7.9831,-1.07
7.9852,0.06
7.9874,-0.165
7.9895,-0.455
7.9917,0.18
7.9939,0.27
7.9961,-0.279
7.9983,-0.61
8.0003,0.44
8.0025,0.45
8.0048,0.43
8.007,-0.72
8.0092,0.42
8.0115,-0.17
8.0137,-0.08
8.016,0.06
8.0182,-0.14
8.0204,-0.68
8.0234,-1.1
8.0257,-0.33
8.0279,-0.05
8.0301,0.45
8.0324,-0.1
8.0346,0.07
8.0369,0.28
8.0391,-0.59
8.0415,-0.62
8.044,0.41
8.046,-0.66
8.0485,0.4
8.051,-0.23
8.0535,-0.46
8.056,-0.45
8.0584,-0.4
8.0609,0.29
8.0634,-0.32
8.0659,-0.16
8.0684,0.55
8.0706,-0.39
8.073,0.51
8.0755,0.45
8.078,-0.76
8.0797,-0.18
8.0814,-0.63
8.0831,-0.26
8.0848,0.05
8.0868,-0.21
8.0885,0.44
8.0901,-0.53
8.0917,0.07
8.0934,-0.71
8.0951,-0.33
8.0968,-0.57
8.0985,-0.33
8.1002,0.44
8.1019,0.27
8.1027,-0.03
8.1041,-0.66
8.1061,-0.2
8.1078,0.49
8.1094,-0.07
8.111,0.1
8.1126,-0.05
8.1146,-0.19
8.1164,-0.2
8.1198,-0.42
8.1231,0.526
8.1268,0.21
8.1307,0.51
8.1344,0.46
8.1392,0.3
8.1433,0.45
8.1457,0.4
8.1489,0.15
8.1522,0.11
8.1555,0.22
8.1586,-0.24
8.1607,0.12
8.1629,-0.37
8.165,-0.47
8.1672,0.43
8.1693,0.55
8.1715,0.49
8.1736,-0.51
8.1758,0.43
8.1779,0.65
8.1801,0.69
8.1823,-0.36
8.1844,0.82
8.1866,0.46
8.1884,-0.13
8.1912,0.24
8.1933,0.71
8.1955,0.31
8.1983,-0.17
8.2007,-0.59
8.205,0.58
8.2092,0.71
8.2135,0.55
8.2177,0.2
8.2206,-0.11
8.2248,0.44
8.2291,0.31
8.2334,0.17
8.2368,0.12
8.2414,-0.45
8.2576,0.42
8.262,-0.05
8.2686,-0.78
8.2749,-0.11
8.2795,-0.77
8.2824,0.37
8.2849,-0.06
8.2879,0.51
8.2901,-0.66
8.2929,0.04
8.2956,0.51
8.2983,0.45
8.3009,-0.21
8.3036,0.36
8.3063,0.42
8.3113,0.5
8.314,0.3
8.3167,-0.46
8.3199,0.19
8.3231,-0.01
8.3263,0.33
8.3295,0.21
8.3327,0.35
8.336,0.51
8.3392,0.37
8.3422,0.33
8.3458,-0.22
8.3486,-0.76
8.352,0.4
8.355,-0.58
8.3582,-0.3
8.3614,-0.59
8.3645,0.09
8.3676,-0.53
8.3706,0.39
8.3736,0.37
8.377,-0.09
8.3797,0.51
8.3829,0.06
8.3858,0.32
8.3887,-0.12
8.3917,-0.25
8.3949,0.3
8.3982,-0.47
8.401,0.26
8.4046,-0.16
8.4076,0.34
8.4105,0.47
8.4135,0.33
8.4165,0.86
8.4194,0.03
8.4224,0.49
8.4253,-0.05
8.4336,1.02
8.436,0.39
8.4395,0.76
8.4425,0.43
8.4459,0.53
8.4494,0.59
8.4529,0.56
8.4564,-0.41
8.4599,-0.27
8.4634,0.46
8.4675,0.63
8.471,0.66
8.4733,0.28
8.4768,-0.69
8.4804,0.41
8.4851,0.43
8.4886,0.59
8.4927,-0.49
8.5133,0.44
8.518,0.39
8.5218,-0.29
8.5253,-0.3
8.5262,-0.4
8.5286,-0.14
8.5288,0.56
8.5318,0.32
8.5346,-0.04
8.5382,0.77
8.5417,-0.16
8.5443,-0.13
8.5475,0.42
8.5509,0.65
8.5542,0.06
8.5574,0.14
8.5608,0.28
8.5642,0.29
8.5691,-0.46
8.574,-0.38
8.5783,0.59
8.5824,0.33
8.5924,-0.08
8.5965,0.57
8.6009,0.45
8.6044,-0.41
8.607,-0.38
8.6105,0.18
8.6141,0.55
8.6174,0.76
8.6195,0.73
8.6221,0.58
8.6249,0.79
8.6275,0.55
8.6301,0.55
8.6327,-0.35
8.6355,0.69
8.6379,-0.44
8.6439,-0.68
8.6514,0.72
8.6542,0.67
8.6567,-0.09
8.6592,-0.13
8.6614,0.12
8.6641,0.288
8.6669,-0.02
8.6688,0.77
8.6714,-0.013
8.6741,0.29
8.6766,0.086
8.6791,0.61
8.6818,-0.559
8.69,-0.023
8.6934,0.547
8.6969,1.26
8.7004,0.4
8.7048,1.09
8.7289,0.3
8.738,-0.25
8.7445,-0.47
8.7494,0.03
8.7533,0.23
8.7559,0.49
8.7593,0.43
8.7623,-0.35
8.7654,-0.66
8.7709,0.54
8.7786,-0.75
8.7855,0.42
8.7916,-0.08
8.7974,0.08
8.8048,-0.23
8.8081,0.45
8.811,0.55
8.819,-0.05
8.8226,-1.07
8.8274,0.05
8.8311,0.48
8.8352,0.08
8.8396,-0.52
8.8442,-0.04
8.8487,-0.45
8.8549,-0.57
8.8612,0.08
8.8683,0.37
8.875,0.16
8.8822,0.51
8.8884,-0.25
8.8935,0.31
8.8988,-0.19
8.9045,0.71
8.9077,0.24
8.913,-0.06
8.9183,0.11
8.9238,0.17
8.9287,0.05
8.9349,-0.18
8.9376,0.44
8.9404,0.21
8.9437,0.62
8.9466,0.28
8.9491,0.78
8.9527,0.51
8.9557,0.74
8.9594,0.8
8.963,0.53
8.9664,0.61
8.9695,0.02
8.9756,0.81
8.9811,0.83
0,1.03
0,0.69